                                                                                                                        
                                                                                                                        
                  *** CONTINUA mt_ckd_3.2                                                                               
                                                                                 Most recent significant change         
                         H2O  SELF  (T)     0 - 20000 CM-1              mt_ckd_3.2 - Cs>2000,T 1800-3500 cm-1 (Aug 2017)
                              AIR           0 - 20000 CM-1              mt_ckd_3.0 - modify 0-700 cm-1        (Nov 2016)
                         CO2  AIR           0 - 10000 CM-1              mt_ckd_2.5 - modify 2000-3000 cm-1    (Jan 2010)
                              AIR   (T)  2386 -  2434 CM-1              mt_ckd_2.5 - temperature dep. added   (Jan 2010)
                         N2   SELF  (T)     0 -   350 CM-1              ckd_2.2    - Borysow Fromhold         (Feb 1996)
                              AIR   (T)     0 -   350 CM-1              mt_ckd_2.1 - incl. O2 rel. efficiency (Sep 2004)
                              AIR   (T)  1993 -  2905 CM-1              mt_ckd_2.8 - N2-H2O Mlawer/Alvarado   (Mar 2016)
                              AIR        4340 -  4910 CM-1              mt_ckd_2.7 - Mlawer and Gombos        (May 2015)
                         O2   AIR   (T)  1340 -  1850 CM-1              ckd_2.4.1  - Thibault et al.          (Mar 1998)
                              O2/N2      7550 -  8486 CM-1              ckd_2.4.1  - Mate et al.              (Feb 2000)
                              AIR        9100 - 11000 CM-1              ckd_2.4.1  - Mlawer et al.            (Aug 1999)
                         O2   AIR     12990 - 13223 CM-1                mt_ckd_3.1  - Mlawer and Gombos       (Jul 2017)
                              O2        15000 - 29870 CM-1              ckd_2.4.2  - Greenblatt et al.        (May 2000)
                              O2/N2     36000 -  >>>> CM-1 HERZBERG     ckd_0                                           
                         O3   AIR   (T)  9170 - 24565 CM-1 CHAPP/WULF   ckd_2.2                               (Feb 1996)
                                    (T) 27370 - 40800 CM-1 HARTL/HUGG   ckd_0                                           
                                        40800 - 54000 CM-1 HARTL/HUGG   ckd_0                                           
                                                                                                                        
                                                                                                                        
                                                                                                                        
                                                                                                                        
Continuum    LBL_n                      Description of Modification                                            Date     
---------    -----                    -------------------------------                                          ----     
                    H2O SELF HAS BEEN REDUCED IN THE 800-1200 CM-1 REGION                                  (01 SEP 1985)
                    03       TEMPERATURE DEPENDENCE HAS BEEN CORRECTED                                     (01 MAY 1987)
                    02       (1390-1760) HAS BEEN REDUCED (FACTOR = 0.78)                                  (07 MAR 1990)
 ckd_1.0      2.2   H2O SELF HAS BEEN REDUCED IN THE 1100-1500 CM-1 REGION                                 (01 APR 1993)
     "              H2O FOREIGN HAS BEEN REDUCED AT ~1300 CM-1 AND IN ALL THE WINDOW REGIONS               (01 APR 1993)
 ckd_2.1      3.3   H2O SELF HAS BEEN MODIFIED IN THE 700-1500 CM-1 REGION                                 (01 MAY 1994)
     "              H2O FOREIGN HAS BEEN MODIFIED IN THE ENTIRE 1200-2200 CM-1 SPECTRAL RANGE              (01 MAY 1994)
 ckd_2.2      3.7   H2O SELF HAS BEEN INCREASED 30% IN THE MICROWAVE REGION                                (09 FEB 1996)
     "              N2 COLLISION INDUCED PURE ROTATION BAND ADDED                                          (09 FEB 1996)
     "              O3 CHAPPUIS CHANGED TO VALUES FROM MODTRAN3                                            (09 FEB 1996)
 ckd_2.2.2    3.12  INTERPOLATION EFFECTS BETWEEN HARTLEY HUGGINS DATA AROUND 40800 CM-1                   (18 SEP 1996)
 ckd_2.4.1    5.12  O2 COLLISION INDUCED FUNDAMENTAL BAND (1340-1850 CM-1) CHANGED TO THIBAULT ET AL., 1996   (MAR 1998)
     "              N2 COLLISION INDUCED FUNDAMENTAL BAND (2085-2670 CM-1) CHANGED TO LAFFERTY ET AL., 1996   (MAR 1998)
     "              H2O FOREIGN HAS BEEN MODIFIED IN THE 0-800 CM-1 AND 1200-2200 CM-1 RANGE BASED ON      (04 JUN 1999)
     "                       AERI-ER FROM SHEBA, TOBIN ET AL., 1998                                                     
     "              H2O SELF HAS BEEN INCREASED IN THE 0-200 CM-1 REGION                                   (04 JUN 1999)
     "              O2 COLLISION INDUCED BAND HAS BEEN ADDED  (9100 - 11000 CM-1); MLAWER ET AL. 1998      (16 AUG 1999)
     "              O2 COLLISION INDUCED BAND HAS BEEN CHANGED (7555 - 8486 CM-1); MATE ET AL. 1999        (10 FEB 2000)
 ckd_2.4.2    5.17  O2 COLLISION INDUCED BANDS HAVE BEEN ADDED (15000 - 29870 CM-1); GREENBLATT ET AL. 1990 (8 MAY 2000)
     "              The nu2 CO2 increased by a factor of 7: based on U  Wisc. AFWEX and AERI_xr at ARM NSA    (Jul 2002)
 mt_ckd_1.00  7.01  *********   The entire water vapor continuum has been revised   *********                 (Dec 2002)
     "              *********   This continuum is based on a new line shape/collision induced formulation, mt_ckd ******
 mt_ckd_1.1   9.1   H2O foreign modified in the 250-550 cm-1 region; results now consistent with ckd_2.4.1    (Aug 2004)
 mt_ckd_1.2   9.2   Collision induced nitrogen 0-350 cm-1 increased (~1.35):  Boissoles at al., 2003          (Sep 2004)
 mt_ckd_1.3  10.0   Nu2 CO2: with P-R line mixing included; factor of 7 increase has been reduceed to 4.5     (May 2006)
 mt_ckd_2.0  11.1   CO2: Based on Hartmann P-Q-R line mixing.  Modification to v3 band based on AIRS data.    (Jul 2007)
 mt_ckd_2.01 11.2   H2O foreign modified in 250-550 cm-1 region based on analyses of nsa aeri_er data.        (Sep 2007)
 mt_ckd_2.1  11.3   CO2: Fundamental change in the lblrtm fourth function with consequent changes in continuum(Nov 2007)
     "              Bug fix impacting the nitrogen continuum in the 0-350 cm-1 region.                        (Nov 2007)
 mt_ckd_2.2  11.4   Analytic Derivative (species retrievals): n2 continuum removed from Jacobian calculation  (Mar 2008)
 mt_ckd_2.3  11.5   Bug fix: corrects error in which Analytic Derivative result depends on starting wavenumber(Aug 2008)
 mt_ckd_2.4  11.6   H2O: modification to self and foreign continuum (microwave and IR ARM data 0-600 cm-1)    (Nov 2008)
 mt_ckd_2.5  11.7   CO2: modification from 2000-3200 cm-1 (AERI(ARM),IASI AIRS measurements); Temp. dep. added(Jan 2010)
     "              H2O: modification to self cont. 2000-3000 cm-1   (IASI data, fit to near-IR results of              
     "              Bicknell et al., 2006 and Fulghum and Tilleman,  1991                                               
 mt_ckd_2.5.1 11.8  Updated common block for constants                                                        (May 2010)
 mt_ckd_2.5.2 12.0  Minor bug fixes, updated continuum summary info,  made consistent with monortm contnm.f   (Jan 2011)
 mt_ckd_2.5.3  -    Cosmetic changes                                                                          (Mar 2015)
 mt_ckd_2.7   12.4  N2 1st overtone - Shapiro & Gush (1966) modified by Mlawer and Gombos based on solar FTS  (Apr 2015)
                    Bug fix for analytic jacobians                                                            (Feb 2016)
 mt_ckd_2.8   12.5  N2-H2O from 2000-3000 cm-1,H2O self for 2000-3190 cm-1,H2O foreign in windows >1880 cm-1  (Jul 2016)
 mt_ckd_3.0   12.6  H2O: foreign/self 0-700/0-100 cm-1; RHUBC-II/-I; REFIR,AERI,SAO-FTS; Mlawer,Turner,Paine  (Nov 2016)
 mt_ckd_3.1   12.7  O2 A-band: Mlawer and Gombos based on analysis ofTCCON FTS measurements for OCO-2         (Jul 2017)
 mt_ckd_3.2   12.8  H2O self > 2000 cm-1 and tdep 1800-3500 cm-1: Campargue group and IASI obs; Mlawer et al. (Aug 2017)
                    ----------------------------------------------------------------------------------------------------
                    ----------------------------------------------------------------------------------------------------

                             P(MB)       T(K)

                              1.000   300.00

         MOLECULAR AMOUNTS (MOL/CM**2) BY LAYER 

   H2O       CO2        O3       N2O        CO       CH4        O2      OTHER

 2.172E+15 7.494E+12 0.000E+00 0.000E+00 0.000E+00 0.000E+00 4.562E+15 1.714E+16


     0.000   0.000E+00
     2.000   5.639E-12
     4.000   2.266E-11
     6.000   5.120E-11
     8.000   9.141E-11
    10.000   1.434E-10
    12.000   2.075E-10
    14.000   2.834E-10
    16.000   3.710E-10
    18.000   4.699E-10
    20.000   5.798E-10
    22.000   6.991E-10
    24.000   8.279E-10
    26.000   9.688E-10
    28.000   1.124E-09
    30.000   1.296E-09
    32.000   1.486E-09
    34.000   1.692E-09
    36.000   1.913E-09
    38.000   2.148E-09
    40.000   2.396E-09
    42.000   2.654E-09
    44.000   2.925E-09
    46.000   3.210E-09
    48.000   3.513E-09
    50.000   3.835E-09
    52.000   4.187E-09
    54.000   4.567E-09
    56.000   4.961E-09
    58.000   5.351E-09
    60.000   5.723E-09
    62.000   6.074E-09
    64.000   6.414E-09
    66.000   6.748E-09
    68.000   7.079E-09
    70.000   7.413E-09
    72.000   7.754E-09
    74.000   8.101E-09
    76.000   8.444E-09
    78.000   8.774E-09
    80.000   9.084E-09
    82.000   9.372E-09
    84.000   9.644E-09
    86.000   9.902E-09
    88.000   1.015E-08
    90.000   1.038E-08
    92.000   1.060E-08
    94.000   1.080E-08
    96.000   1.099E-08
    98.000   1.119E-08
   100.000   1.138E-08
   102.000   1.159E-08
   104.000   1.180E-08
   106.000   1.201E-08
   108.000   1.221E-08
   110.000   1.239E-08
   112.000   1.253E-08
   114.000   1.265E-08
   116.000   1.276E-08
   118.000   1.287E-08
   120.000   1.299E-08
   122.000   1.311E-08
   124.000   1.324E-08
   126.000   1.338E-08
   128.000   1.350E-08
   130.000   1.360E-08
   132.000   1.370E-08
   134.000   1.380E-08
   136.000   1.387E-08
   138.000   1.393E-08
   140.000   1.394E-08
   142.000   1.390E-08
   144.000   1.381E-08
   146.000   1.369E-08
   148.000   1.360E-08
   150.000   1.356E-08
   152.000   1.360E-08
   154.000   1.371E-08
   156.000   1.383E-08
   158.000   1.392E-08
   160.000   1.393E-08
   162.000   1.382E-08
   164.000   1.363E-08
   166.000   1.340E-08
   168.000   1.319E-08
   170.000   1.304E-08
   172.000   1.296E-08
   174.000   1.293E-08
   176.000   1.291E-08
   178.000   1.289E-08
   180.000   1.283E-08
   182.000   1.274E-08
   184.000   1.263E-08
   186.000   1.250E-08
   188.000   1.237E-08
   190.000   1.224E-08
   192.000   1.210E-08
   194.000   1.194E-08
   196.000   1.179E-08
   198.000   1.164E-08
   200.000   1.152E-08
   202.000   1.145E-08
   204.000   1.140E-08
   206.000   1.136E-08
   208.000   1.131E-08
   210.000   1.121E-08
   212.000   1.107E-08
   214.000   1.089E-08
   216.000   1.070E-08
   218.000   1.051E-08
   220.000   1.034E-08
   222.000   1.021E-08
   224.000   1.011E-08
   226.000   1.001E-08
   228.000   9.904E-09
   230.000   9.763E-09
   232.000   9.576E-09
   234.000   9.354E-09
   236.000   9.121E-09
   238.000   8.899E-09
   240.000   8.711E-09
   242.000   8.563E-09
   244.000   8.441E-09
   246.000   8.333E-09
   248.000   8.230E-09
   250.000   8.121E-09
   252.000   8.005E-09
   254.000   7.889E-09
   256.000   7.774E-09
   258.000   7.661E-09
   260.000   7.552E-09
   262.000   7.447E-09
   264.000   7.346E-09
   266.000   7.247E-09
   268.000   7.147E-09
   270.000   7.042E-09
   272.000   6.932E-09
   274.000   6.817E-09
   276.000   6.702E-09
   278.000   6.588E-09
   280.000   6.479E-09
   282.000   6.378E-09
   284.000   6.284E-09
   286.000   6.190E-09
   288.000   6.093E-09
   290.000   5.986E-09
   292.000   5.866E-09
   294.000   5.735E-09
   296.000   5.601E-09
   298.000   5.471E-09
   300.000   5.354E-09
   302.000   5.251E-09
   304.000   5.157E-09
   306.000   5.069E-09
   308.000   4.985E-09
   310.000   4.900E-09
   312.000   4.816E-09
   314.000   4.734E-09
   316.000   4.654E-09
   318.000   4.575E-09
   320.000   4.496E-09
   322.000   4.420E-09
   324.000   4.347E-09
   326.000   4.274E-09
   328.000   4.198E-09
   330.000   4.117E-09
   332.000   4.028E-09
   334.000   3.931E-09
   336.000   3.833E-09
   338.000   3.740E-09
   340.000   3.656E-09
   342.000   3.587E-09
   344.000   3.526E-09
   346.000   3.471E-09
   348.000   3.415E-09
   350.000   3.353E-09
   352.000   3.283E-09
   354.000   3.209E-09
   356.000   3.133E-09
   358.000   3.059E-09
   360.000   2.989E-09
   362.000   2.922E-09
   364.000   2.858E-09
   366.000   2.796E-09
   368.000   2.736E-09
   370.000   2.678E-09
   372.000   2.624E-09
   374.000   2.573E-09
   376.000   2.524E-09
   378.000   2.476E-09
   380.000   2.427E-09
   382.000   2.376E-09
   384.000   2.326E-09
   386.000   2.276E-09
   388.000   2.228E-09
   390.000   2.181E-09
   392.000   2.137E-09
   394.000   2.095E-09
   396.000   2.054E-09
   398.000   2.014E-09
   400.000   1.975E-09
   402.000   1.937E-09
   404.000   1.899E-09
   406.000   1.862E-09
   408.000   1.826E-09
   410.000   1.792E-09
   412.000   1.761E-09
   414.000   1.731E-09
   416.000   1.702E-09
   418.000   1.673E-09
   420.000   1.643E-09
   422.000   1.612E-09
   424.000   1.579E-09
   426.000   1.547E-09
   428.000   1.515E-09
   430.000   1.484E-09
   432.000   1.456E-09
   434.000   1.429E-09
   436.000   1.403E-09
   438.000   1.377E-09
   440.000   1.351E-09
   442.000   1.324E-09
   444.000   1.298E-09
   446.000   1.273E-09
   448.000   1.247E-09
   450.000   1.223E-09
   452.000   1.200E-09
   454.000   1.177E-09
   456.000   1.155E-09
   458.000   1.134E-09
   460.000   1.112E-09
   462.000   1.091E-09
   464.000   1.070E-09
   466.000   1.050E-09
   468.000   1.030E-09
   470.000   1.010E-09
   472.000   9.910E-10
   474.000   9.723E-10
   476.000   9.540E-10
   478.000   9.359E-10
   480.000   9.181E-10
   482.000   9.003E-10
   484.000   8.827E-10
   486.000   8.654E-10
   488.000   8.484E-10
   490.000   8.317E-10
   492.000   8.153E-10
   494.000   7.991E-10
   496.000   7.832E-10
   498.000   7.678E-10
   500.000   7.529E-10
   502.000   7.387E-10
   504.000   7.251E-10
   506.000   7.118E-10
   508.000   6.989E-10
   510.000   6.860E-10
   512.000   6.734E-10
   514.000   6.610E-10
   516.000   6.487E-10
   518.000   6.367E-10
   520.000   6.247E-10
   522.000   6.128E-10
   524.000   6.009E-10
   526.000   5.892E-10
   528.000   5.777E-10
   530.000   5.664E-10
   532.000   5.554E-10
   534.000   5.447E-10
   536.000   5.341E-10
   538.000   5.238E-10
   540.000   5.138E-10
   542.000   5.040E-10
   544.000   4.946E-10
   546.000   4.853E-10
   548.000   4.763E-10
   550.000   4.673E-10
   552.000   4.585E-10
   554.000   4.499E-10
   556.000   4.414E-10
   558.000   4.331E-10
   560.000   4.250E-10
   562.000   4.171E-10
   564.000   4.094E-10
   566.000   4.019E-10
   568.000   3.944E-10
   570.000   3.871E-10
   572.000   3.798E-10
   574.000   3.725E-10
   576.000   3.654E-10
   578.000   3.584E-10
   580.000   3.517E-10
   582.000   3.451E-10
   584.000   3.388E-10
   586.000   3.326E-10
   588.000   3.265E-10
   590.000   3.206E-10
   592.000   3.148E-10
   594.000   3.092E-10
   596.000   3.037E-10
   598.000   2.984E-10
   600.000   2.931E-10
   602.000   2.879E-10
   604.000   2.829E-10
   606.000   2.779E-10
   608.000   2.731E-10
   610.000   2.683E-10
   612.000   2.636E-10
   614.000   2.590E-10
   616.000   2.545E-10
   618.000   2.501E-10
   620.000   2.458E-10
   622.000   2.416E-10
   624.000   2.375E-10
   626.000   2.335E-10
   628.000   2.296E-10
   630.000   2.258E-10
   632.000   2.222E-10
   634.000   2.187E-10
   636.000   2.152E-10
   638.000   2.119E-10
   640.000   2.086E-10
   642.000   2.055E-10
   644.000   2.026E-10
   646.000   2.000E-10
   648.000   1.975E-10
   650.000   1.950E-10
   652.000   1.926E-10
   654.000   1.902E-10
   656.000   1.878E-10
   658.000   1.855E-10
   660.000   1.831E-10
   662.000   1.807E-10
   664.000   1.783E-10
   666.000   1.758E-10
   668.000   1.734E-10
   670.000   1.709E-10
   672.000   1.683E-10
   674.000   1.657E-10
   676.000   1.631E-10
   678.000   1.604E-10
   680.000   1.577E-10
   682.000   1.550E-10
   684.000   1.523E-10
   686.000   1.496E-10
   688.000   1.469E-10
   690.000   1.441E-10
   692.000   1.413E-10
   694.000   1.389E-10
   696.000   1.367E-10
   698.000   1.345E-10
   700.000   1.325E-10
   702.000   1.305E-10
   704.000   1.285E-10
   706.000   1.267E-10
   708.000   1.248E-10
   710.000   1.231E-10
   712.000   1.214E-10
   714.000   1.197E-10
   716.000   1.181E-10
   718.000   1.166E-10
   720.000   1.150E-10
   722.000   1.135E-10
   724.000   1.120E-10
   726.000   1.106E-10
   728.000   1.092E-10
   730.000   1.078E-10
   732.000   1.064E-10
   734.000   1.051E-10
   736.000   1.038E-10
   738.000   1.025E-10
   740.000   1.012E-10
   742.000   9.997E-11
   744.000   9.877E-11
   746.000   9.759E-11
   748.000   9.645E-11
   750.000   9.532E-11
   752.000   9.421E-11
   754.000   9.312E-11
   756.000   9.206E-11
   758.000   9.101E-11
   760.000   8.998E-11
   762.000   8.897E-11
   764.000   8.798E-11
   766.000   8.700E-11
   768.000   8.604E-11
   770.000   8.510E-11
   772.000   8.418E-11
   774.000   8.327E-11
   776.000   8.238E-11
   778.000   8.150E-11
   780.000   8.063E-11
   782.000   7.978E-11
   784.000   7.895E-11
   786.000   7.813E-11
   788.000   7.732E-11
   790.000   7.653E-11
   792.000   7.575E-11
   794.000   7.499E-11
   796.000   7.424E-11
   798.000   7.350E-11
   800.000   7.277E-11
   802.000   7.204E-11
   804.000   7.133E-11
   806.000   7.062E-11
   808.000   6.994E-11
   810.000   6.927E-11
   812.000   6.862E-11
   814.000   6.800E-11
   816.000   6.739E-11
   818.000   6.680E-11
   820.000   6.622E-11
   822.000   6.566E-11
   824.000   6.511E-11
   826.000   6.459E-11
   828.000   6.407E-11
   830.000   6.355E-11
   832.000   6.304E-11
   834.000   6.253E-11
   836.000   6.203E-11
   838.000   6.154E-11
   840.000   6.106E-11
   842.000   6.060E-11
   844.000   6.015E-11
   846.000   5.972E-11
   848.000   5.929E-11
   850.000   5.885E-11
   852.000   5.841E-11
   854.000   5.797E-11
   856.000   5.753E-11
   858.000   5.709E-11
   860.000   5.665E-11
   862.000   5.621E-11
   864.000   5.577E-11
   866.000   5.533E-11
   868.000   5.490E-11
   870.000   5.447E-11
   872.000   5.405E-11
   874.000   5.364E-11
   876.000   5.324E-11
   878.000   5.283E-11
   880.000   5.242E-11
   882.000   5.201E-11
   884.000   5.160E-11
   886.000   5.120E-11
   888.000   5.079E-11
   890.000   5.038E-11
   892.000   4.997E-11
   894.000   4.956E-11
   896.000   4.915E-11
   898.000   4.876E-11
   900.000   4.838E-11
   902.000   4.803E-11
   904.000   4.772E-11
   906.000   4.741E-11
   908.000   4.708E-11
   910.000   4.672E-11
   912.000   4.630E-11
   914.000   4.584E-11
   916.000   4.537E-11
   918.000   4.489E-11
   920.000   4.444E-11
   922.000   4.401E-11
   924.000   4.359E-11
   926.000   4.318E-11
   928.000   4.276E-11
   930.000   4.233E-11
   932.000   4.188E-11
   934.000   4.140E-11
   936.000   4.092E-11
   938.000   4.046E-11
   940.000   4.002E-11
   942.000   3.962E-11
