                                                                                                                        
                                                                                                                        
                  *** CONTINUA mt_ckd_3.2                                                                               
                                                                                 Most recent significant change         
                         H2O  SELF  (T)     0 - 20000 CM-1              mt_ckd_3.2 - Cs>2000,T 1800-3500 cm-1 (Aug 2017)
                              AIR           0 - 20000 CM-1              mt_ckd_3.0 - modify 0-700 cm-1        (Nov 2016)
                         CO2  AIR           0 - 10000 CM-1              mt_ckd_2.5 - modify 2000-3000 cm-1    (Jan 2010)
                              AIR   (T)  2386 -  2434 CM-1              mt_ckd_2.5 - temperature dep. added   (Jan 2010)
                         N2   SELF  (T)     0 -   350 CM-1              ckd_2.2    - Borysow Fromhold         (Feb 1996)
                              AIR   (T)     0 -   350 CM-1              mt_ckd_2.1 - incl. O2 rel. efficiency (Sep 2004)
                              AIR   (T)  1993 -  2905 CM-1              mt_ckd_2.8 - N2-H2O Mlawer/Alvarado   (Mar 2016)
                              AIR        4340 -  4910 CM-1              mt_ckd_2.7 - Mlawer and Gombos        (May 2015)
                         O2   AIR   (T)  1340 -  1850 CM-1              ckd_2.4.1  - Thibault et al.          (Mar 1998)
                              O2/N2      7550 -  8486 CM-1              ckd_2.4.1  - Mate et al.              (Feb 2000)
                              AIR        9100 - 11000 CM-1              ckd_2.4.1  - Mlawer et al.            (Aug 1999)
                         O2   AIR     12990 - 13223 CM-1                mt_ckd_3.1  - Mlawer and Gombos       (Jul 2017)
                              O2        15000 - 29870 CM-1              ckd_2.4.2  - Greenblatt et al.        (May 2000)
                              O2/N2     36000 -  >>>> CM-1 HERZBERG     ckd_0                                           
                         O3   AIR   (T)  9170 - 24565 CM-1 CHAPP/WULF   ckd_2.2                               (Feb 1996)
                                    (T) 27370 - 40800 CM-1 HARTL/HUGG   ckd_0                                           
                                        40800 - 54000 CM-1 HARTL/HUGG   ckd_0                                           
                                                                                                                        
                                                                                                                        
                                                                                                                        
                                                                                                                        
Continuum    LBL_n                      Description of Modification                                            Date     
---------    -----                    -------------------------------                                          ----     
                    H2O SELF HAS BEEN REDUCED IN THE 800-1200 CM-1 REGION                                  (01 SEP 1985)
                    03       TEMPERATURE DEPENDENCE HAS BEEN CORRECTED                                     (01 MAY 1987)
                    02       (1390-1760) HAS BEEN REDUCED (FACTOR = 0.78)                                  (07 MAR 1990)
 ckd_1.0      2.2   H2O SELF HAS BEEN REDUCED IN THE 1100-1500 CM-1 REGION                                 (01 APR 1993)
     "              H2O FOREIGN HAS BEEN REDUCED AT ~1300 CM-1 AND IN ALL THE WINDOW REGIONS               (01 APR 1993)
 ckd_2.1      3.3   H2O SELF HAS BEEN MODIFIED IN THE 700-1500 CM-1 REGION                                 (01 MAY 1994)
     "              H2O FOREIGN HAS BEEN MODIFIED IN THE ENTIRE 1200-2200 CM-1 SPECTRAL RANGE              (01 MAY 1994)
 ckd_2.2      3.7   H2O SELF HAS BEEN INCREASED 30% IN THE MICROWAVE REGION                                (09 FEB 1996)
     "              N2 COLLISION INDUCED PURE ROTATION BAND ADDED                                          (09 FEB 1996)
     "              O3 CHAPPUIS CHANGED TO VALUES FROM MODTRAN3                                            (09 FEB 1996)
 ckd_2.2.2    3.12  INTERPOLATION EFFECTS BETWEEN HARTLEY HUGGINS DATA AROUND 40800 CM-1                   (18 SEP 1996)
 ckd_2.4.1    5.12  O2 COLLISION INDUCED FUNDAMENTAL BAND (1340-1850 CM-1) CHANGED TO THIBAULT ET AL., 1996   (MAR 1998)
     "              N2 COLLISION INDUCED FUNDAMENTAL BAND (2085-2670 CM-1) CHANGED TO LAFFERTY ET AL., 1996   (MAR 1998)
     "              H2O FOREIGN HAS BEEN MODIFIED IN THE 0-800 CM-1 AND 1200-2200 CM-1 RANGE BASED ON      (04 JUN 1999)
     "                       AERI-ER FROM SHEBA, TOBIN ET AL., 1998                                                     
     "              H2O SELF HAS BEEN INCREASED IN THE 0-200 CM-1 REGION                                   (04 JUN 1999)
     "              O2 COLLISION INDUCED BAND HAS BEEN ADDED  (9100 - 11000 CM-1); MLAWER ET AL. 1998      (16 AUG 1999)
     "              O2 COLLISION INDUCED BAND HAS BEEN CHANGED (7555 - 8486 CM-1); MATE ET AL. 1999        (10 FEB 2000)
 ckd_2.4.2    5.17  O2 COLLISION INDUCED BANDS HAVE BEEN ADDED (15000 - 29870 CM-1); GREENBLATT ET AL. 1990 (8 MAY 2000)
     "              The nu2 CO2 increased by a factor of 7: based on U  Wisc. AFWEX and AERI_xr at ARM NSA    (Jul 2002)
 mt_ckd_1.00  7.01  *********   The entire water vapor continuum has been revised   *********                 (Dec 2002)
     "              *********   This continuum is based on a new line shape/collision induced formulation, mt_ckd ******
 mt_ckd_1.1   9.1   H2O foreign modified in the 250-550 cm-1 region; results now consistent with ckd_2.4.1    (Aug 2004)
 mt_ckd_1.2   9.2   Collision induced nitrogen 0-350 cm-1 increased (~1.35):  Boissoles at al., 2003          (Sep 2004)
 mt_ckd_1.3  10.0   Nu2 CO2: with P-R line mixing included; factor of 7 increase has been reduceed to 4.5     (May 2006)
 mt_ckd_2.0  11.1   CO2: Based on Hartmann P-Q-R line mixing.  Modification to v3 band based on AIRS data.    (Jul 2007)
 mt_ckd_2.01 11.2   H2O foreign modified in 250-550 cm-1 region based on analyses of nsa aeri_er data.        (Sep 2007)
 mt_ckd_2.1  11.3   CO2: Fundamental change in the lblrtm fourth function with consequent changes in continuum(Nov 2007)
     "              Bug fix impacting the nitrogen continuum in the 0-350 cm-1 region.                        (Nov 2007)
 mt_ckd_2.2  11.4   Analytic Derivative (species retrievals): n2 continuum removed from Jacobian calculation  (Mar 2008)
 mt_ckd_2.3  11.5   Bug fix: corrects error in which Analytic Derivative result depends on starting wavenumber(Aug 2008)
 mt_ckd_2.4  11.6   H2O: modification to self and foreign continuum (microwave and IR ARM data 0-600 cm-1)    (Nov 2008)
 mt_ckd_2.5  11.7   CO2: modification from 2000-3200 cm-1 (AERI(ARM),IASI AIRS measurements); Temp. dep. added(Jan 2010)
     "              H2O: modification to self cont. 2000-3000 cm-1   (IASI data, fit to near-IR results of              
     "              Bicknell et al., 2006 and Fulghum and Tilleman,  1991                                               
 mt_ckd_2.5.1 11.8  Updated common block for constants                                                        (May 2010)
 mt_ckd_2.5.2 12.0  Minor bug fixes, updated continuum summary info,  made consistent with monortm contnm.f   (Jan 2011)
 mt_ckd_2.5.3  -    Cosmetic changes                                                                          (Mar 2015)
 mt_ckd_2.7   12.4  N2 1st overtone - Shapiro & Gush (1966) modified by Mlawer and Gombos based on solar FTS  (Apr 2015)
                    Bug fix for analytic jacobians                                                            (Feb 2016)
 mt_ckd_2.8   12.5  N2-H2O from 2000-3000 cm-1,H2O self for 2000-3190 cm-1,H2O foreign in windows >1880 cm-1  (Jul 2016)
 mt_ckd_3.0   12.6  H2O: foreign/self 0-700/0-100 cm-1; RHUBC-II/-I; REFIR,AERI,SAO-FTS; Mlawer,Turner,Paine  (Nov 2016)
 mt_ckd_3.1   12.7  O2 A-band: Mlawer and Gombos based on analysis ofTCCON FTS measurements for OCO-2         (Jul 2017)
 mt_ckd_3.2   12.8  H2O self > 2000 cm-1 and tdep 1800-3500 cm-1: Campargue group and IASI obs; Mlawer et al. (Aug 2017)
                    ----------------------------------------------------------------------------------------------------
                    ----------------------------------------------------------------------------------------------------

                             P(MB)       T(K)

                           1013.000   300.00

         MOLECULAR AMOUNTS (MOL/CM**2) BY LAYER 

   H2O       CO2        O3       N2O        CO       CH4        O2      OTHER

 2.421E+17 8.351E+15 0.000E+00 0.000E+00 0.000E+00 0.000E+00 5.083E+18 1.910E+19


     0.000   0.000E+00
     2.000   2.634E-07
     4.000   1.055E-06
     6.000   2.376E-06
     8.000   4.231E-06
    10.000   6.619E-06
    12.000   9.504E-06
    14.000   1.288E-05
    16.000   1.681E-05
    18.000   2.134E-05
    20.000   2.654E-05
    22.000   3.220E-05
    24.000   3.830E-05
    26.000   4.511E-05
    28.000   5.294E-05
    30.000   6.207E-05
    32.000   7.241E-05
    34.000   8.375E-05
    36.000   9.626E-05
    38.000   1.101E-04
    40.000   1.254E-04
    42.000   1.422E-04
    44.000   1.604E-04
    46.000   1.799E-04
    48.000   2.008E-04
    50.000   2.230E-04
    52.000   2.474E-04
    54.000   2.738E-04
    56.000   3.012E-04
    58.000   3.283E-04
    60.000   3.538E-04
    62.000   3.778E-04
    64.000   4.011E-04
    66.000   4.237E-04
    68.000   4.456E-04
    70.000   4.667E-04
    72.000   4.873E-04
    74.000   5.074E-04
    76.000   5.267E-04
    78.000   5.448E-04
    80.000   5.615E-04
    82.000   5.764E-04
    84.000   5.898E-04
    86.000   6.021E-04
    88.000   6.137E-04
    90.000   6.250E-04
    92.000   6.362E-04
    94.000   6.468E-04
    96.000   6.569E-04
    98.000   6.663E-04
   100.000   6.750E-04
   102.000   6.827E-04
   104.000   6.896E-04
   106.000   6.958E-04
   108.000   7.017E-04
   110.000   7.077E-04
   112.000   7.137E-04
   114.000   7.196E-04
   116.000   7.253E-04
   118.000   7.306E-04
   120.000   7.354E-04
   122.000   7.397E-04
   124.000   7.435E-04
   126.000   7.470E-04
   128.000   7.499E-04
   130.000   7.524E-04
   132.000   7.546E-04
   134.000   7.563E-04
   136.000   7.575E-04
   138.000   7.580E-04
   140.000   7.578E-04
   142.000   7.565E-04
   144.000   7.541E-04
   146.000   7.512E-04
   148.000   7.484E-04
   150.000   7.463E-04
   152.000   7.456E-04
   154.000   7.460E-04
   156.000   7.463E-04
   158.000   7.451E-04
   160.000   7.412E-04
   162.000   7.336E-04
   164.000   7.234E-04
   166.000   7.116E-04
   168.000   6.994E-04
   170.000   6.880E-04
   172.000   6.772E-04
   174.000   6.663E-04
   176.000   6.554E-04
   178.000   6.449E-04
   180.000   6.350E-04
   182.000   6.258E-04
   184.000   6.172E-04
   186.000   6.090E-04
   188.000   6.011E-04
   190.000   5.935E-04
   192.000   5.864E-04
   194.000   5.799E-04
   196.000   5.735E-04
   198.000   5.669E-04
   200.000   5.595E-04
   202.000   5.513E-04
   204.000   5.426E-04
   206.000   5.334E-04
   208.000   5.240E-04
   210.000   5.145E-04
   212.000   5.047E-04
   214.000   4.948E-04
   216.000   4.846E-04
   218.000   4.741E-04
   220.000   4.634E-04
   222.000   4.525E-04
   224.000   4.414E-04
   226.000   4.300E-04
   228.000   4.183E-04
   230.000   4.062E-04
   232.000   3.930E-04
   234.000   3.789E-04
   236.000   3.648E-04
   238.000   3.515E-04
   240.000   3.399E-04
   242.000   3.305E-04
   244.000   3.226E-04
   246.000   3.156E-04
   248.000   3.091E-04
   250.000   3.027E-04
   252.000   2.962E-04
   254.000   2.899E-04
   256.000   2.841E-04
   258.000   2.786E-04
   260.000   2.737E-04
   262.000   2.696E-04
   264.000   2.664E-04
   266.000   2.634E-04
   268.000   2.601E-04
   270.000   2.560E-04
   272.000   2.507E-04
   274.000   2.447E-04
   276.000   2.384E-04
   278.000   2.320E-04
   280.000   2.261E-04
   282.000   2.207E-04
   284.000   2.156E-04
   286.000   2.105E-04
   288.000   2.054E-04
   290.000   2.001E-04
   292.000   1.944E-04
   294.000   1.885E-04
   296.000   1.826E-04
   298.000   1.768E-04
   300.000   1.712E-04
   302.000   1.658E-04
   304.000   1.603E-04
   306.000   1.550E-04
   308.000   1.503E-04
   310.000   1.463E-04
   312.000   1.435E-04
   314.000   1.417E-04
   316.000   1.402E-04
   318.000   1.386E-04
   320.000   1.364E-04
   322.000   1.333E-04
   324.000   1.299E-04
   326.000   1.262E-04
   328.000   1.223E-04
   330.000   1.184E-04
   332.000   1.144E-04
   334.000   1.101E-04
   336.000   1.058E-04
   338.000   1.017E-04
   340.000   9.803E-05
   342.000   9.491E-05
   344.000   9.218E-05
   346.000   8.967E-05
   348.000   8.722E-05
   350.000   8.464E-05
   352.000   8.188E-05
   354.000   7.908E-05
   356.000   7.631E-05
   358.000   7.361E-05
   360.000   7.105E-05
   362.000   6.859E-05
   364.000   6.620E-05
   366.000   6.391E-05
   368.000   6.175E-05
   370.000   5.975E-05
   372.000   5.796E-05
   374.000   5.637E-05
   376.000   5.489E-05
   378.000   5.345E-05
   380.000   5.199E-05
   382.000   5.048E-05
   384.000   4.899E-05
   386.000   4.752E-05
   388.000   4.609E-05
   390.000   4.470E-05
   392.000   4.332E-05
   394.000   4.194E-05
   396.000   4.062E-05
   398.000   3.940E-05
   400.000   3.834E-05
   402.000   3.748E-05
   404.000   3.680E-05
   406.000   3.621E-05
   408.000   3.564E-05
   410.000   3.502E-05
   412.000   3.434E-05
   414.000   3.365E-05
   416.000   3.296E-05
   418.000   3.229E-05
   420.000   3.165E-05
   422.000   3.106E-05
   424.000   3.049E-05
   426.000   2.995E-05
   428.000   2.942E-05
   430.000   2.890E-05
   432.000   2.840E-05
   434.000   2.792E-05
   436.000   2.745E-05
   438.000   2.696E-05
   440.000   2.645E-05
   442.000   2.588E-05
   444.000   2.527E-05
   446.000   2.465E-05
   448.000   2.405E-05
   450.000   2.349E-05
   452.000   2.299E-05
   454.000   2.253E-05
   456.000   2.209E-05
   458.000   2.167E-05
   460.000   2.126E-05
   462.000   2.088E-05
   464.000   2.053E-05
   466.000   2.019E-05
   468.000   1.985E-05
   470.000   1.949E-05
   472.000   1.911E-05
   474.000   1.872E-05
   476.000   1.832E-05
   478.000   1.792E-05
   480.000   1.753E-05
   482.000   1.715E-05
   484.000   1.677E-05
   486.000   1.639E-05
   488.000   1.601E-05
   490.000   1.565E-05
   492.000   1.529E-05
   494.000   1.494E-05
   496.000   1.459E-05
   498.000   1.426E-05
   500.000   1.397E-05
   502.000   1.371E-05
   504.000   1.348E-05
   506.000   1.327E-05
   508.000   1.306E-05
   510.000   1.284E-05
   512.000   1.260E-05
   514.000   1.236E-05
   516.000   1.211E-05
   518.000   1.187E-05
   520.000   1.163E-05
   522.000   1.139E-05
   524.000   1.115E-05
   526.000   1.091E-05
   528.000   1.067E-05
   530.000   1.044E-05
   532.000   1.021E-05
   534.000   9.983E-06
   536.000   9.761E-06
   538.000   9.546E-06
   540.000   9.342E-06
   542.000   9.150E-06
   544.000   8.968E-06
   546.000   8.794E-06
   548.000   8.623E-06
   550.000   8.452E-06
   552.000   8.281E-06
   554.000   8.112E-06
   556.000   7.945E-06
   558.000   7.781E-06
   560.000   7.621E-06
   562.000   7.464E-06
   564.000   7.312E-06
   566.000   7.162E-06
   568.000   7.013E-06
   570.000   6.864E-06
   572.000   6.711E-06
   574.000   6.558E-06
   576.000   6.406E-06
   578.000   6.258E-06
   580.000   6.117E-06
   582.000   5.984E-06
   584.000   5.856E-06
   586.000   5.733E-06
   588.000   5.615E-06
   590.000   5.502E-06
   592.000   5.396E-06
   594.000   5.299E-06
   596.000   5.209E-06
   598.000   5.121E-06
   600.000   5.035E-06
   602.000   4.950E-06
   604.000   4.867E-06
   606.000   4.786E-06
   608.000   4.707E-06
   610.000   4.630E-06
   612.000   4.556E-06
   614.000   4.486E-06
   616.000   4.420E-06
   618.000   4.360E-06
   620.000   4.307E-06
   622.000   4.263E-06
   624.000   4.232E-06
   626.000   4.221E-06
   628.000   4.229E-06
   630.000   4.257E-06
   632.000   4.309E-06
   634.000   4.386E-06
   636.000   4.488E-06
   638.000   4.615E-06
   640.000   4.767E-06
   642.000   4.925E-06
   644.000   5.433E-06
   646.000   6.137E-06
   648.000   6.833E-06
   650.000   7.506E-06
   652.000   8.148E-06
   654.000   8.746E-06
   656.000   9.302E-06
   658.000   9.793E-06
   660.000   1.022E-05
   662.000   1.056E-05
   664.000   1.082E-05
   666.000   1.099E-05
   668.000   1.107E-05
   670.000   1.103E-05
   672.000   1.090E-05
   674.000   1.067E-05
   676.000   1.034E-05
   678.000   9.927E-06
   680.000   9.422E-06
   682.000   8.842E-06
   684.000   8.179E-06
   686.000   7.455E-06
   688.000   6.664E-06
   690.000   5.813E-06
   692.000   4.908E-06
   694.000   4.319E-06
   696.000   3.907E-06
   698.000   3.590E-06
   700.000   3.308E-06
   702.000   3.058E-06
   704.000   2.841E-06
   706.000   2.653E-06
   708.000   2.495E-06
   710.000   2.362E-06
   712.000   2.251E-06
   714.000   2.159E-06
   716.000   2.084E-06
   718.000   2.021E-06
   720.000   1.966E-06
   722.000   1.918E-06
   724.000   1.874E-06
   726.000   1.833E-06
   728.000   1.794E-06
   730.000   1.756E-06
   732.000   1.718E-06
   734.000   1.680E-06
   736.000   1.642E-06
   738.000   1.605E-06
   740.000   1.567E-06
   742.000   1.529E-06
   744.000   1.492E-06
   746.000   1.458E-06
   748.000   1.433E-06
   750.000   1.408E-06
   752.000   1.384E-06
   754.000   1.361E-06
   756.000   1.339E-06
   758.000   1.318E-06
   760.000   1.297E-06
   762.000   1.278E-06
   764.000   1.259E-06
   766.000   1.241E-06
   768.000   1.224E-06
   770.000   1.207E-06
   772.000   1.191E-06
   774.000   1.176E-06
   776.000   1.161E-06
   778.000   1.146E-06
   780.000   1.131E-06
   782.000   1.117E-06
   784.000   1.104E-06
   786.000   1.090E-06
   788.000   1.077E-06
   790.000   1.064E-06
   792.000   1.051E-06
   794.000   1.039E-06
   796.000   1.027E-06
   798.000   1.015E-06
   800.000   1.004E-06
   802.000   9.922E-07
   804.000   9.808E-07
   806.000   9.697E-07
   808.000   9.587E-07
   810.000   9.481E-07
   812.000   9.378E-07
   814.000   9.278E-07
   816.000   9.181E-07
   818.000   9.086E-07
   820.000   8.993E-07
   822.000   8.902E-07
   824.000   8.814E-07
   826.000   8.727E-07
   828.000   8.643E-07
   830.000   8.559E-07
   832.000   8.476E-07
   834.000   8.394E-07
   836.000   8.314E-07
   838.000   8.236E-07
   840.000   8.160E-07
   842.000   8.087E-07
   844.000   8.016E-07
   846.000   7.947E-07
   848.000   7.879E-07
   850.000   7.811E-07
   852.000   7.743E-07
   854.000   7.675E-07
   856.000   7.608E-07
   858.000   7.542E-07
   860.000   7.475E-07
   862.000   7.409E-07
   864.000   7.343E-07
   866.000   7.278E-07
   868.000   7.213E-07
   870.000   7.150E-07
   872.000   7.088E-07
   874.000   7.027E-07
   876.000   6.967E-07
   878.000   6.907E-07
   880.000   6.847E-07
   882.000   6.787E-07
   884.000   6.727E-07
   886.000   6.667E-07
   888.000   6.608E-07
   890.000   6.549E-07
   892.000   6.490E-07
   894.000   6.432E-07
   896.000   6.374E-07
   898.000   6.317E-07
   900.000   6.263E-07
   902.000   6.213E-07
   904.000   6.167E-07
   906.000   6.122E-07
   908.000   6.075E-07
   910.000   6.023E-07
   912.000   5.965E-07
   914.000   5.902E-07
   916.000   5.838E-07
   918.000   5.774E-07
   920.000   5.712E-07
   922.000   5.653E-07
   924.000   5.597E-07
   926.000   5.541E-07
   928.000   5.485E-07
   930.000   5.427E-07
   932.000   5.366E-07
   934.000   5.303E-07
   936.000   5.239E-07
   938.000   5.178E-07
   940.000   5.120E-07
   942.000   5.066E-07
