% The water continuum used by the December 2002 "version 7" AIRS
% fast model coefficient is a hybrid of kCARTA's 51 (aka 5.1) and
% 55 (aka 5.5) continuum models developed by UMBC based on the
% CDK models.
%
% Scott Hannon, 13 March 2003
%
% ID = AIRS channel ID (PGE version)
% freq = channel centroid frequency (cm^-1)
% CKD = kCARTA continuum version number
% mult = multiplier applied to the kCARTA continuum 
%
% in SPECTRA/ckd_lookupBIN_v60special.m we combine CKD 51 and CKD 55 as below
%
% ID    freq   CKD   mult
%---- -------- --- --------
    1  649.612  51  0.87000
    2  649.851  51  0.87000
    3  650.089  51  0.87000
    4  650.328  51  0.87000
    5  650.567  51  0.87000
    6  650.806  51  0.87000
    7  651.046  51  0.87000
    8  651.285  51  0.87000
    9  651.525  51  0.87000
   10  651.765  51  0.87000
   11  652.005  51  0.87000
   12  652.245  51  0.87000
   13  652.486  51  0.87000
   14  652.727  51  0.87000
   15  652.968  51  0.87000
   16  653.209  51  0.87000
   17  653.450  51  0.87000
   18  653.691  51  0.87000
   19  653.933  51  0.87000
   20  654.175  51  0.87000
   21  654.417  51  0.87000
   22  654.659  51  0.87000
   23  654.901  51  0.87000
   24  655.144  51  0.87000
   25  655.387  51  0.87000
   26  655.630  51  0.87000
   27  655.873  51  0.87000
   28  656.116  51  0.87000
   29  656.360  51  0.87000
   30  656.604  51  0.87000
   31  656.848  51  0.87000
   32  657.092  51  0.87000
   33  657.336  51  0.87000
   34  657.581  51  0.87000
   35  657.825  51  0.87000
   36  658.070  51  0.87000
   37  658.315  51  0.87000
   38  658.561  51  0.87000
   39  658.806  51  0.87000
   40  659.052  51  0.87000
   41  659.298  51  0.87000
   42  659.544  51  0.87000
   43  659.790  51  0.87000
   44  660.036  51  0.87000
   45  660.283  51  0.87000
   46  660.530  51  0.87000
   47  660.777  51  0.87000
   48  661.024  51  0.87000
   49  661.272  51  0.87000
   50  661.519  51  0.87000
   51  661.767  51  0.87000
   52  662.015  51  0.87000
   53  662.263  51  0.87000
   54  662.512  51  0.87000
   55  662.761  51  0.87000
   56  663.009  51  0.87000
   57  663.258  51  0.87000
   58  663.508  51  0.87000
   59  663.757  51  0.87000
   60  664.007  51  0.87000
   61  664.256  51  0.87000
   62  664.506  51  0.87000
   63  664.757  51  0.87000
   64  665.007  51  0.87000
   65  665.258  51  0.87000
   66  665.508  51  0.87000
   67  665.760  51  0.87000
   68  666.011  51  0.87000
   69  666.262  51  0.87000
   70  666.514  51  0.87000
   71  666.766  51  0.87000
   72  667.018  51  0.87000
   73  667.270  51  0.87000
   74  667.522  51  0.87000
   75  667.775  51  0.87000
   76  668.028  51  0.87000
   77  668.281  51  0.87000
   78  668.534  51  0.87000
   79  668.787  51  0.87000
   80  669.041  51  0.87000
   81  669.295  51  0.87000
   82  669.549  51  0.87000
   83  669.803  51  0.87000
   84  670.057  51  0.87000
   85  670.312  51  0.87000
   86  670.567  51  0.87000
   87  670.822  51  0.87000
   88  671.077  51  0.87000
   89  671.333  51  0.87000
   90  671.588  51  0.87000
   91  671.844  51  0.87000
   92  672.100  51  0.87000
   93  672.357  51  0.87000
   94  672.613  51  0.87000
   95  672.870  51  0.87000
   96  673.127  51  0.87000
   97  673.384  51  0.87000
   98  673.641  51  0.87000
   99  673.899  51  0.87000
  100  674.156  51  0.87000
  101  674.414  51  0.87000
  102  674.672  51  0.87000
  103  674.931  51  0.87000
  104  675.189  51  0.87000
  105  675.448  51  0.87000
  106  675.707  51  0.87000
  107  675.966  51  0.87000
  108  676.226  51  0.87000
  109  676.485  51  0.87000
  110  676.745  51  0.87000
  111  677.005  51  0.87000
  112  677.265  51  0.87000
  113  677.526  51  0.87000
  114  677.786  51  0.87000
  115  678.047  51  0.87000
  116  678.308  51  0.87000
  117  678.569  51  0.87000
  118  678.831  51  0.87000
  119  679.093  51  0.87000
  120  679.355  51  0.87000
  121  679.617  51  0.87000
  122  679.879  51  0.87000
  123  680.141  51  0.87000
  124  680.404  51  0.87000
  125  680.667  51  0.87000
  126  680.930  51  0.87000
  127  681.194  51  0.87000
  128  681.457  51  0.87000
  129  681.721  51  0.87000
  130  681.985  51  0.87000
  131  687.601  51  0.87000
  132  687.871  51  0.87000
  133  688.140  51  0.87000
  134  688.410  51  0.87000
  135  688.680  51  0.87000
  136  688.950  51  0.87000
  137  689.220  51  0.87000
  138  689.491  51  0.87000
  139  689.762  51  0.87000
  140  690.033  51  0.87000
  141  690.304  51  0.87000
  142  690.576  51  0.87000
  143  690.847  51  0.87000
  144  691.119  51  0.87000
  145  691.391  51  0.87000
  146  691.664  51  0.87000
  147  691.936  51  0.87000
  148  692.209  51  0.87000
  149  692.482  51  0.87000
  150  692.755  51  0.87000
  151  693.029  51  0.87000
  152  693.302  51  0.87000
  153  693.576  51  0.87000
  154  693.851  51  0.87000
  155  694.125  51  0.87000
  156  694.399  51  0.87000
  157  694.674  51  0.87000
  158  694.949  51  0.87000
  159  695.225  51  0.87000
  160  695.500  51  0.87000
  161  695.776  51  0.87000
  162  696.052  51  0.87000
  163  696.328  51  0.87000
  164  696.604  51  0.87000
  165  696.881  51  0.87000
  166  697.158  51  0.87000
  167  697.435  51  0.87000
  168  697.712  51  0.87000
  169  697.990  51  0.87000
  170  698.267  51  0.87000
  171  698.545  51  0.87000
  172  698.823  51  0.87000
  173  699.102  51  0.87000
  174  699.381  51  0.87000
  175  699.659  51  0.87000
  176  699.939  51  0.87000
  177  700.218  51  0.87000
  178  700.497  51  0.87000
  179  700.777  51  0.87000
  180  701.057  51  0.87000
  181  701.338  51  0.87000
  182  701.618  51  0.87000
  183  701.899  51  0.87000
  184  702.180  51  0.87000
  185  702.461  51  0.87000
  186  702.742  51  0.87000
  187  703.024  51  0.87000
  188  703.306  51  0.87000
  189  703.588  51  0.87000
  190  703.870  51  0.87000
  191  704.153  51  0.87000
  192  704.436  51  0.87000
  193  704.719  51  0.87000
  194  705.002  51  0.87000
  195  705.285  51  0.87000
  196  705.569  51  0.87000
  197  705.853  51  0.87000
  198  706.137  51  0.87000
  199  706.422  51  0.87000
  200  706.706  51  0.87000
  201  706.991  51  0.87000
  202  707.276  51  0.87000
  203  707.562  51  0.87000
  204  707.847  51  0.87000
  205  708.133  51  0.87000
  206  708.419  51  0.87000
  207  708.706  51  0.87000
  208  708.992  51  0.87000
  209  709.279  51  0.87000
  210  709.566  51  0.87000
  211  709.853  51  0.87000
  212  710.141  51  0.87000
  213  710.428  51  0.87000
  214  710.716  51  0.87000
  215  711.005  51  0.87000
  216  711.293  51  0.87000
  217  711.582  51  0.87000
  218  711.871  51  0.87000
  219  712.160  51  0.87000
  220  712.449  51  0.87000
  221  712.739  51  0.87000
  222  713.029  51  0.87000
  223  713.319  51  0.87000
  224  713.609  51  0.87000
  225  713.900  51  0.87000
  226  714.191  51  0.87000
  227  714.482  51  0.87000
  228  714.773  51  0.87000
  229  715.065  51  0.87000
  230  715.356  51  0.87000
  231  715.648  51  0.87000
  232  715.941  51  0.87000
  233  716.233  51  0.87000
  234  716.526  51  0.87000
  235  716.819  51  0.87000
  236  717.112  51  0.87000
  237  717.406  51  0.87000
  238  717.700  51  0.87000
  239  717.994  51  0.87000
  240  718.288  51  0.87000
  241  718.582  51  0.87000
  242  718.877  51  0.87000
  243  719.172  51  0.87000
  244  719.467  51  0.87000
  245  719.763  51  0.87000
  246  720.058  51  0.87000
  247  720.354  51  0.87000
  248  720.651  51  0.87000
  249  720.947  51  0.87000
  250  721.244  51  0.87000
  251  721.541  51  0.87000
  252  721.838  51  0.87000
  253  722.135  51  0.87000
  254  722.433  51  0.87000
  255  722.731  51  0.87000
  256  723.029  51  0.87000
  257  723.328  51  0.87000
  258  723.626  51  0.87000
  259  723.925  51  0.87000
  260  724.224  51  0.87000
  261  724.524  51  0.87000
  262  724.823  51  0.87000
  263  725.123  51  0.87000
  264  725.424  51  0.87000
  265  725.724  51  0.87000
  266  726.025  51  0.87000
  267  726.326  51  0.87000
  268  726.627  51  0.87000
  269  726.928  51  0.87000
  270  727.230  51  0.87000
  271  727.532  51  0.87000
  272  727.834  51  0.87000
  273  728.137  51  0.87000
  274  728.439  51  0.87000
  275  728.055  51  0.87000
  276  728.357  51  0.87000
  277  728.660  51  0.87000
  278  728.963  51  0.87000
  279  729.266  51  0.87000
  280  729.569  51  0.87000
  281  729.873  51  0.87000
  282  730.177  51  0.87000
  283  730.481  51  0.87000
  284  730.785  51  0.87000
  285  731.090  51  0.87000
  286  731.395  51  0.87000
  287  731.700  51  0.87000
  288  732.005  51  0.87000
  289  732.311  51  0.87000
  290  732.617  51  0.87000
  291  732.923  51  0.87000
  292  733.229  51  0.87000
  293  733.536  51  0.87000
  294  733.843  51  0.87000
  295  734.150  51  0.87000
  296  734.458  51  0.87000
  297  734.765  51  0.87000
  298  735.073  51  0.87000
  299  735.381  51  0.87000
  300  735.690  51  0.87000
  301  735.999  51  0.87000
  302  736.308  51  0.87000
  303  736.617  51  0.87000
  304  736.926  51  0.87000
  305  737.236  51  0.87000
  306  737.546  51  0.87000
  307  737.856  51  0.87000
  308  738.167  51  0.87000
  309  738.477  51  0.87000
  310  738.788  51  0.87000
  311  739.100  51  0.87000
  312  739.411  51  0.87000
  313  739.723  51  0.87000
  314  740.035  51  0.87000
  315  740.347  51  0.87000
  316  740.660  51  0.87000
  317  740.973  51  0.87000
  318  741.286  51  0.87000
  319  741.599  51  0.87000
  320  741.913  51  0.87000
  321  742.227  51  0.87000
  322  742.541  51  0.87000
  323  742.855  51  0.87000
  324  743.170  51  0.87000
  325  743.485  51  0.87000
  326  743.800  51  0.87000
  327  744.116  51  0.87000
  328  744.431  51  0.87000
  329  744.747  51  0.87000
  330  745.064  51  0.87000
  331  745.380  51  0.87000
  332  745.697  51  0.87000
  333  746.014  51  0.87000
  334  746.331  51  0.87000
  335  746.649  51  0.87000
  336  746.967  51  0.87000
  337  747.285  51  0.87000
  338  747.603  51  0.87000
  339  747.922  51  0.87000
  340  748.241  51  0.87000
  341  748.560  51  0.87000
  342  748.879  51  0.87000
  343  749.199  51  0.87000
  344  749.519  51  0.87000
  345  749.839  51  0.87000
  346  750.160  51  0.87000
  347  750.481  51  0.87000
  348  750.802  51  0.87000
  349  751.123  51  0.87000
  350  751.445  51  0.87000
  351  751.767  51  0.87000
  352  752.089  51  0.87000
  353  752.411  51  0.87000
  354  752.734  51  0.87000
  355  753.057  51  0.87000
  356  753.380  51  0.87000
  357  753.703  51  0.87000
  358  754.027  51  0.87000
  359  754.351  51  0.87000
  360  754.676  51  0.87000
  361  755.000  51  0.87000
  362  755.325  51  0.87000
  363  755.650  51  0.87000
  364  755.976  51  0.87000
  365  756.301  51  0.87000
  366  756.627  51  0.87000
  367  756.954  51  0.87000
  368  757.280  51  0.87000
  369  757.607  51  0.87000
  370  757.934  51  0.87000
  371  758.261  51  0.87000
  372  758.589  51  0.87000
  373  758.917  51  0.87000
  374  759.245  51  0.87000
  375  759.573  51  0.87000
  376  759.902  51  0.87000
  377  760.231  51  0.87000
  378  760.561  51  0.87000
  379  760.890  51  0.87000
  380  761.220  51  0.87000
  381  761.550  51  0.87000
  382  761.880  51  0.87000
  383  762.211  51  0.87000
  384  762.542  51  0.87000
  385  762.873  51  0.87000
  386  763.205  51  0.87000
  387  763.537  51  0.87000
  388  763.869  51  0.87000
  389  764.201  51  0.87000
  390  764.534  51  0.87000
  391  764.867  51  0.87000
  392  765.200  51  0.87000
  393  765.534  51  0.87000
  394  765.867  51  0.87000
  395  766.201  51  0.87000
  396  766.536  51  0.87000
  397  766.870  51  0.87000
  398  767.205  51  0.87000
  399  767.541  51  0.87000
  400  767.876  51  0.87000
  401  768.212  51  0.87000
  402  768.548  51  0.87000
  403  768.884  51  0.87000
  404  769.221  51  0.87000
  405  769.558  51  0.87000
  406  769.895  51  0.87000
  407  770.233  51  0.87000
  408  770.570  51  0.87000
  409  770.909  51  0.87000
  410  771.247  51  0.87000
  411  771.586  51  0.87000
  412  771.925  51  0.87000
  413  772.264  51  0.87000
  414  772.603  51  0.87000
  415  772.943  51  0.87000
  416  773.283  51  0.87000
  417  773.624  51  0.87000
  418  773.964  51  0.87000
  419  774.305  51  0.87000
  420  774.647  51  0.87000
  421  774.988  51  0.87000
  422  775.330  51  0.87000
  423  775.672  51  0.87000
  424  776.015  51  0.87000
  425  776.357  51  0.87000
  426  776.700  51  0.87000
  427  777.044  51  0.87000
  428  777.387  51  0.87000
  429  777.731  51  0.87000
  430  778.076  51  0.87000
  431  778.420  51  0.87000
  432  778.765  51  0.87000
  433  779.110  51  0.87000
  434  779.455  51  0.87000
  435  779.801  51  0.87000
  436  780.147  51  0.87000
  437  780.493  51  0.87000
  438  780.840  51  0.87000
  439  781.187  51  0.87000
  440  781.534  51  0.87000
  441  781.882  51  0.87000
  442  789.263  51  0.87000
  443  789.616  51  0.87000
  444  789.971  51  0.87000
  445  790.325  51  0.87000
  446  790.680  51  0.87000
  447  791.035  51  0.87000
  448  791.390  51  0.87000
  449  791.745  51  0.87000
  450  792.101  51  0.87000
  451  792.457  51  0.87000
  452  792.814  51  0.87000
  453  793.171  51  0.87000
  454  793.528  51  0.87000
  455  793.885  51  0.87000
  456  794.243  51  0.87000
  457  794.601  51  0.87000
  458  794.959  51  0.87000
  459  795.318  51  0.87000
  460  795.677  51  0.87000
  461  796.036  51  0.87000
  462  796.396  51  0.87000
  463  796.756  51  0.87000
  464  797.116  51  0.87000
  465  797.477  51  0.87000
  466  797.837  51  0.87000
  467  798.199  51  0.87000
  468  798.560  51  0.87000
  469  798.922  51  0.87000
  470  799.284  51  0.87000
  471  799.646  51  0.87000
  472  800.009  51  0.87000
  473  800.372  51  0.87000
  474  800.735  51  0.87000
  475  801.099  51  0.87000
  476  801.463  51  0.87000
  477  801.827  51  0.87000
  478  802.192  51  0.87000
  479  802.557  51  0.87000
  480  802.922  51  0.87000
  481  803.288  51  0.87000
  482  803.654  51  0.87000
  483  804.020  51  0.87000
  484  804.386  51  0.87000
  485  804.753  51  0.87000
  486  805.120  51  0.87000
  487  805.488  51  0.87000
  488  805.856  51  0.87000
  489  806.224  51  0.87000
  490  806.592  51  0.87000
  491  806.961  51  0.87000
  492  807.330  51  0.87000
  493  807.699  51  0.87000
  494  808.069  51  0.87000
  495  808.439  51  0.87000
  496  808.809  51  0.87000
  497  809.180  51  0.87000
  498  809.551  51  0.87000
  499  809.922  51  0.87000
  500  810.294  51  0.87000
  501  810.666  51  0.87000
  502  811.038  51  0.87000
  503  811.411  51  0.87000
  504  811.784  51  0.87000
  505  812.157  51  0.87000
  506  812.531  51  0.87000
  507  812.905  51  0.87000
  508  813.279  51  0.87000
  509  813.654  51  0.87000
  510  814.029  51  0.87000
  511  814.404  51  0.87000
  512  814.779  51  0.87000
  513  815.155  51  0.87000
  514  815.532  51  0.87000
  515  815.908  51  0.87000
  516  816.285  51  0.87000
  517  816.662  51  0.87000
  518  817.040  51  0.87000
  519  817.418  51  0.87000
  520  817.796  51  0.87000
  521  818.174  51  0.87000
  522  818.553  51  0.87000
  523  818.933  51  0.87000
  524  819.312  51  0.87000
  525  819.692  51  0.87000
  526  820.072  51  0.87000
  527  820.453  51  0.87000
  528  820.834  51  0.87000
  529  821.215  51  0.87000
  530  821.596  51  0.87000
  531  821.978  51  0.87000
  532  822.361  51  0.87000
  533  822.743  51  0.87000
  534  823.126  51  0.87000
  535  823.509  51  0.87000
  536  823.893  51  0.87000
  537  824.277  51  0.87000
  538  824.661  51  0.87000
  539  825.046  51  0.87000
  540  825.431  51  0.87000
  541  825.816  51  0.87000
  542  826.202  51  0.87000
  543  826.587  51  0.87000
  544  826.974  51  0.87000
  545  827.360  51  0.87000
  546  827.747  51  0.87000
  547  828.135  51  0.87000
  548  828.522  51  0.87000
  549  828.910  51  0.87000
  550  829.299  51  0.87000
  551  829.687  51  0.87000
  552  830.076  51  0.87000
  553  830.466  51  0.87000
  554  830.856  51  0.87000
  555  831.246  51  0.87000
  556  831.636  51  0.87000
  557  832.027  51  0.87000
  558  832.418  51  0.87000
  559  832.809  51  0.87000
  560  833.201  51  0.87000
  561  833.593  51  0.87000
  562  833.986  51  0.87000
  563  834.379  51  0.87000
  564  834.772  51  0.87000
  565  835.166  51  0.87000
  566  835.559  51  0.87000
  567  835.954  51  0.87000
  568  836.348  51  0.87000
  569  836.743  51  0.87000
  570  837.139  51  0.87000
  571  837.534  51  0.87000
  572  837.930  51  0.87000
  573  838.327  51  0.87000
  574  838.723  51  0.87000
  575  839.120  51  0.87000
  576  839.518  51  0.87000
  577  839.916  51  0.87000
  578  840.314  51  0.87000
  579  840.712  51  0.87000
  580  841.111  51  0.87000
  581  841.510  51  0.87000
  582  841.910  51  0.87000
  583  842.310  51  0.87000
  584  842.710  51  0.87000
  585  843.111  51  0.87000
  586  843.512  51  0.87000
  587  843.913  51  0.87000
  588  844.315  51  0.87000
  589  844.717  51  0.87000
  590  845.119  51  0.87000
  591  845.522  51  0.87000
  592  845.925  51  0.87000
  593  846.329  51  0.87000
  594  846.732  51  0.87000
  595  847.137  51  0.87000
  596  847.541  51  0.87000
  597  847.946  51  0.87000
  598  848.352  51  0.87000
  599  848.757  51  0.87000
  600  849.163  51  0.87000
  601  849.570  51  0.87000
  602  849.977  51  0.87000
  603  850.384  51  0.87000
  604  850.791  51  0.87000
  605  851.199  51  0.87000
  606  851.607  51  0.87000
  607  852.016  51  0.87000
  608  852.425  51  0.87000
  609  851.490  51  0.87000
  610  851.797  51  0.87000
  611  852.104  51  0.87000
  612  852.411  51  0.87000
  613  852.718  51  0.87000
  614  853.026  51  0.87000
  615  853.334  51  0.87000
  616  853.642  51  0.87000
  617  853.950  51  0.87000
  618  854.259  51  0.87000
  619  854.568  51  0.87000
  620  854.877  51  0.87000
  621  855.186  51  0.87000
  622  855.495  51  0.87000
  623  855.805  51  0.87000
  624  856.115  51  0.87000
  625  856.426  51  0.87000
  626  856.736  51  0.87000
  627  857.047  51  0.87000
  628  857.358  51  0.87000
  629  857.669  51  0.87000
  630  857.981  51  0.87000
  631  858.292  51  0.87000
  632  858.604  51  0.87000
  633  858.917  51  0.87000
  634  859.229  51  0.87000
  635  859.542  51  0.87000
  636  859.855  51  0.87000
  637  860.168  51  0.87000
  638  860.482  51  0.87000
  639  860.795  51  0.87000
  640  861.109  51  0.87000
  641  861.424  51  0.87000
  642  861.738  51  0.87000
  643  862.053  51  0.87000
  644  862.368  51  0.87000
  645  862.683  51  0.87000
  646  862.998  51  0.87000
  647  863.314  51  0.87000
  648  863.630  51  0.87000
  649  863.946  51  0.87000
  650  864.263  51  0.87000
  651  864.579  51  0.87000
  652  864.896  51  0.87000
  653  865.214  51  0.87000
  654  865.531  51  0.87000
  655  865.849  51  0.87000
  656  866.167  51  0.87000
  657  866.485  51  0.87000
  658  866.803  51  0.87000
  659  867.122  51  0.87000
  660  867.441  51  0.87000
  661  867.760  51  0.87000
  662  868.080  51  0.87000
  663  868.399  51  0.87000
  664  868.719  51  0.87000
  665  869.040  51  0.87000
  666  869.360  51  0.87000
  667  869.681  51  0.87000
  668  870.002  51  0.87000
  669  870.323  51  0.87000
  670  870.645  51  0.87000
  671  870.966  51  0.87000
  672  871.288  51  0.87000
  673  871.611  51  0.87000
  674  871.933  51  0.87000
  675  872.256  51  0.87000
  676  872.579  51  0.87000
  677  872.902  51  0.87000
  678  873.226  51  0.87000
  679  873.550  51  0.87000
  680  873.874  51  0.87000
  681  874.198  51  0.87000
  682  874.523  51  0.87000
  683  874.847  51  0.87000
  684  875.172  51  0.87000
  685  875.498  51  0.87000
  686  875.823  51  0.87000
  687  876.149  51  0.87000
  688  876.475  51  0.87000
  689  876.802  51  0.87000
  690  877.128  51  0.87000
  691  877.455  51  0.87000
  692  877.783  51  0.87000
  693  878.110  51  0.87000
  694  878.438  51  0.87000
